SPECT  

DESCRIPTOR "Argyll Spectral power/reflectance information"
ORIGINATOR "Argyll CMS"
CREATED "Tue Mar 18 23:12:35 2025"
MEAS_TYPE "EMISSION"
SPECTRAL_BANDS "106"
SPECTRAL_START_NM "380.000000"
SPECTRAL_END_NM "730.000000"
SPECTRAL_NORM "1.000000"

NUMBER_OF_FIELDS 106
BEGIN_DATA_FORMAT
SPEC_380 SPEC_383 SPEC_387 SPEC_390 SPEC_393 SPEC_397 SPEC_400 SPEC_403 SPEC_407 SPEC_410 SPEC_413 SPEC_417 SPEC_420 SPEC_423 SPEC_427 SPEC_430 SPEC_433 SPEC_437 SPEC_440 SPEC_443 SPEC_447 SPEC_450 SPEC_453 SPEC_457 SPEC_460 SPEC_463 SPEC_467 SPEC_470 SPEC_473 SPEC_477 SPEC_480 SPEC_483 SPEC_487 SPEC_490 SPEC_493 SPEC_497 SPEC_500 SPEC_503 SPEC_507 SPEC_510 SPEC_513 SPEC_517 SPEC_520 SPEC_523 SPEC_527 SPEC_530 SPEC_533 SPEC_537 SPEC_540 SPEC_543 SPEC_547 SPEC_550 SPEC_553 SPEC_557 SPEC_560 SPEC_563 SPEC_567 SPEC_570 SPEC_573 SPEC_577 SPEC_580 SPEC_583 SPEC_587 SPEC_590 SPEC_593 SPEC_597 SPEC_600 SPEC_603 SPEC_607 SPEC_610 SPEC_613 SPEC_617 SPEC_620 SPEC_623 SPEC_627 SPEC_630 SPEC_633 SPEC_637 SPEC_640 SPEC_643 SPEC_647 SPEC_650 SPEC_653 SPEC_657 SPEC_660 SPEC_663 SPEC_667 SPEC_670 SPEC_673 SPEC_677 SPEC_680 SPEC_683 SPEC_687 SPEC_690 SPEC_693 SPEC_697 SPEC_700 SPEC_703 SPEC_707 SPEC_710 SPEC_713 SPEC_717 SPEC_720 SPEC_723 SPEC_727 SPEC_730 
END_DATA_FORMAT

NUMBER_OF_SETS 1
BEGIN_DATA
0.0435899 0.0435899 0.0435899 0.0435899 0.0435899 0.0435899 0.0435910 0.0587105 0.0715330 0.0735997 0.0778390 0.0874225 0.0957105 0.102505 0.110087 0.119327 0.132301 0.146544 0.163381 0.184189 0.208222 0.230586 0.246618 0.262779 0.281398 0.297052 0.310203 0.329718 0.354594 0.376934 0.399113 0.429182 0.467633 0.511188 0.557898 0.604880 0.648453 0.691888 0.734110 0.775093 0.815921 0.847994 0.875672 0.903018 0.944276 0.994305 1.047037 1.095554 1.147236 1.212001 1.289810 1.372717 1.452657 1.530426 1.611304 1.703008 1.801201 1.890613 1.970652 2.042406 2.112282 2.184304 2.257490 2.322450 2.378678 2.429017 2.487256 2.554072 2.638819 2.741316 2.848546 2.946129 3.036685 3.133102 3.246022 3.371817 3.497411 3.628514 3.756934 3.890343 4.017148 4.145522 4.269961 4.385729 4.501280 4.612045 4.707687 4.788522 4.862105 4.940033 5.027993 5.118555 5.212710 5.311034 5.413304 5.500195 5.572927 5.647987 5.723361 5.824538 5.936380 6.057773 6.190426 6.330015 6.457919 6.556859 
END_DATA
